t         x(t)      y(t)      vx(t)     vy(t)      K(t)      U(t)      E(t)
0.000000  0.000000  0.000000  7.071068  7.071068  50.000000 -0.000000 50.000000
0.010000  0.070711  0.070711  7.071068  6.972968  49.311140 0.693672  50.004812
0.020000  0.141421  0.140440  7.071068  6.874868  48.631904 1.377720  50.009624
0.030000  0.212132  0.209189  7.071068  6.776768  47.962291 2.052144  50.014435
0.040000  0.282843  0.276957  7.071068  6.678668  47.302302 2.716945  50.019247
0.050000  0.353553  0.343743  7.071068  6.580568  46.651936 3.372123  50.024059
0.060000  0.424264  0.409549  7.071068  6.482468  46.011194 4.017676  50.028871
0.070000  0.494975  0.474374  7.071068  6.384368  45.380076 4.653606  50.033683
0.080000  0.565685  0.538217  7.071068  6.286268  44.758582 5.279913  50.038494
0.090000  0.636396  0.601080  7.071068  6.188168  44.146710 5.896596  50.043306
0.100000  0.707107  0.662962  7.071068  6.090068  43.544463 6.503655  50.048118
0.110000  0.777817  0.723862  7.071068  5.991968  42.951839 7.101091  50.052930
0.120000  0.848528  0.783782  7.071068  5.893868  42.368839 7.688903  50.057742
0.130000  0.919239  0.842721  7.071068  5.795768  41.795462 8.267091  50.062553
0.140000  0.989949  0.900678  7.071068  5.697668  41.231709 8.835656  50.067365
0.150000  1.060660  0.957655  7.071068  5.599568  40.677580 9.394597  50.072177
0.160000  1.131371  1.013651  7.071068  5.501468  40.133074 9.943915  50.076989
0.170000  1.202082  1.068666  7.071068  5.403368  39.598192 10.483609 50.081801
0.180000  1.272792  1.122699  7.071068  5.305268  39.072933 11.013679 50.086612
0.190000  1.343503  1.175752  7.071068  5.207168  38.557298 11.534126 50.091424
0.200000  1.414214  1.227824  7.071068  5.109068  38.051287 12.044949 50.096236
0.210000  1.484924  1.278914  7.071068  5.010968  37.554899 12.546149 50.101048
0.220000  1.555635  1.329024  7.071068  4.912868  37.068135 13.037725 50.105860
0.230000  1.626346  1.378153  7.071068  4.814768  36.590995 13.519677 50.110672
0.240000  1.697056  1.426300  7.071068  4.716668  36.123478 13.992006 50.115483
0.250000  1.767767  1.473467  7.071068  4.618568  35.665584 14.454711 50.120295
0.260000  1.838478  1.519653  7.071068  4.520468  35.217315 14.907792 50.125107
0.270000  1.909188  1.564857  7.071068  4.422368  34.778669 15.351250 50.129919
0.280000  1.979899  1.609081  7.071068  4.324268  34.349646 15.785084 50.134731
0.290000  2.050610  1.652324  7.071068  4.226168  33.930247 16.209295 50.139542
0.300000  2.121320  1.694585  7.071068  4.128068  33.520472 16.623882 50.144354
0.310000  2.192031  1.735866  7.071068  4.029968  33.120320 17.028846 50.149166
0.320000  2.262742  1.776166  7.071068  3.931868  32.729792 17.424186 50.153978
0.330000  2.333452  1.815484  7.071068  3.833768  32.348888 17.809902 50.158790
0.340000  2.404163  1.853822  7.071068  3.735668  31.977607 18.185994 50.163601
0.350000  2.474874  1.891179  7.071068  3.637568  31.615950 18.552463 50.168413
0.360000  2.545584  1.927554  7.071068  3.539468  31.263916 18.909309 50.173225
0.370000  2.616295  1.962949  7.071068  3.441368  30.921506 19.256531 50.178037
0.380000  2.687006  1.997363  7.071068  3.343268  30.588720 19.594129 50.182849
0.390000  2.757716  2.030795  7.071068  3.245168  30.265557 19.922103 50.187660
0.400000  2.828427  2.063247  7.071068  3.147068  29.952018 20.240454 50.192472
0.410000  2.899138  2.094718  7.071068  3.048968  29.648102 20.549182 50.197284
0.420000  2.969848  2.125207  7.071068  2.950868  29.353810 20.848285 50.202096
0.430000  3.040559  2.154716  7.071068  2.852768  29.069142 21.137766 50.206908
0.440000  3.111270  2.183244  7.071068  2.754668  28.794097 21.417622 50.211719
0.450000  3.181981  2.210791  7.071068  2.656568  28.528676 21.687855 50.216531
0.460000  3.252691  2.237356  7.071068  2.558468  28.272879 21.948464 50.221343
0.470000  3.323402  2.262941  7.071068  2.460368  28.026705 22.199450 50.226155
0.480000  3.394113  2.287545  7.071068  2.362268  27.790155 22.440812 50.230967
0.490000  3.464823  2.311167  7.071068  2.264168  27.563228 22.672551 50.235778
0.500000  3.535534  2.333809  7.071068  2.166068  27.345925 22.894665 50.240590
0.510000  3.606245  2.355470  7.071068  2.067968  27.138245 23.107157 50.245402
0.520000  3.676955  2.376149  7.071068  1.969868  26.940190 23.310024 50.250214
0.530000  3.747666  2.395848  7.071068  1.871768  26.751757 23.503268 50.255026
0.540000  3.818377  2.414566  7.071068  1.773668  26.572949 23.686889 50.259837
0.550000  3.889087  2.432302  7.071068  1.675568  26.403764 23.860886 50.264649
0.560000  3.959798  2.449058  7.071068  1.577468  26.244202 24.025259 50.269461
0.570000  4.030509  2.464833  7.071068  1.479368  26.094265 24.180008 50.274273
0.580000  4.101219  2.479626  7.071068  1.381268  25.953950 24.325134 50.279085
0.590000  4.171930  2.493439  7.071068  1.283168  25.823260 24.460637 50.283896
0.600000  4.242641  2.506271  7.071068  1.185068  25.702193 24.586515 50.288708
0.610000  4.313351  2.518121  7.071068  1.086968  25.590750 24.702771 50.293520
0.620000  4.384062  2.528991  7.071068  0.988868  25.488930 24.809402 50.298332
0.630000  4.454773  2.538880  7.071068  0.890768  25.396734 24.906410 50.303144
0.640000  4.525483  2.547787  7.071068  0.792668  25.314161 24.993794 50.307956
0.650000  4.596194  2.555714  7.071068  0.694568  25.241212 25.071555 50.312767
0.660000  4.666905  2.562660  7.071068  0.596468  25.177887 25.139692 50.317579
0.670000  4.737615  2.568624  7.071068  0.498368  25.124185 25.198206 50.322391
0.680000  4.808326  2.573608  7.071068  0.400268  25.080107 25.247096 50.327203
0.690000  4.879037  2.577611  7.071068  0.302168  25.045653 25.286362 50.332015
0.700000  4.949747  2.580632  7.071068  0.204068  25.020822 25.316005 50.336826
0.710000  5.020458  2.582673  7.071068  0.105968  25.005615 25.336024 50.341638
0.720000  5.091169  2.583733  7.071068  0.007868  25.000031 25.346419 50.346450
0.730000  5.161880  2.583812  7.071068  -0.090232 25.004071 25.347191 50.351262
0.740000  5.232590  2.582909  7.071068  -0.188332 25.017735 25.338339 50.356074
0.750000  5.303301  2.581026  7.071068  -0.286432 25.041022 25.319864 50.360885
0.760000  5.374012  2.578162  7.071068  -0.384532 25.073933 25.291765 50.365697
0.770000  5.444722  2.574316  7.071068  -0.482632 25.116467 25.254042 50.370509
0.780000  5.515433  2.569490  7.071068  -0.580732 25.168625 25.206696 50.375321
0.790000  5.586144  2.563683  7.071068  -0.678832 25.230407 25.149726 50.380133
0.800000  5.656854  2.556894  7.071068  -0.776932 25.301812 25.083133 50.384944
0.810000  5.727565  2.549125  7.071068  -0.875032 25.382841 25.006916 50.389756
0.820000  5.798276  2.540375  7.071068  -0.973132 25.473493 24.921075 50.394568
0.830000  5.868986  2.530643  7.071068  -1.071232 25.573769 24.825611 50.399380
0.840000  5.939697  2.519931  7.071068  -1.169332 25.683669 24.720523 50.404192
0.850000  6.010408  2.508238  7.071068  -1.267432 25.803192 24.605811 50.409003
0.860000  6.081118  2.495563  7.071068  -1.365532 25.932339 24.481476 50.413815
0.870000  6.151829  2.481908  7.071068  -1.463632 26.071110 24.347517 50.418627
0.880000  6.222540  2.467272  7.071068  -1.561732 26.219504 24.203935 50.423439
0.890000  6.293250  2.451654  7.071068  -1.659832 26.377521 24.050729 50.428251
0.900000  6.363961  2.435056  7.071068  -1.757932 26.545163 23.887900 50.433062
0.910000  6.434672  2.417477  7.071068  -1.856032 26.722428 23.715447 50.437874
0.920000  6.505382  2.398916  7.071068  -1.954132 26.909316 23.533370 50.442686
0.930000  6.576093  2.379375  7.071068  -2.052232 27.105828 23.341669 50.447498
0.940000  6.646804  2.358853  7.071068  -2.150332 27.311964 23.140345 50.452310
0.950000  6.717514  2.337349  7.071068  -2.248432 27.527724 22.929398 50.457121
0.960000  6.788225  2.314865  7.071068  -2.346532 27.753107 22.708827 50.461933
0.970000  6.858936  2.291400  7.071068  -2.444632 27.988113 22.478632 50.466745
0.980000  6.929646  2.266953  7.071068  -2.542732 28.232743 22.238813 50.471557
0.990000  7.000357  2.241526  7.071068  -2.640832 28.486997 21.989371 50.476369
1.000000  7.071068  2.215118  7.071068  -2.738932 28.750875 21.730306 50.481181
1.010000  7.141778  2.187728  7.071068  -2.837032 29.024376 21.461616 50.485992
1.020000  7.212489  2.159358  7.071068  -2.935132 29.307500 21.183304 50.490804
1.030000  7.283200  2.130007  7.071068  -3.033232 29.600249 20.895367 50.495616
1.040000  7.353911  2.099675  7.071068  -3.131332 29.902621 20.597807 50.500428
1.050000  7.424621  2.068361  7.071068  -3.229432 30.214616 20.290623 50.505240
1.060000  7.495332  2.036067  7.071068  -3.327532 30.536235 19.973816 50.510051
1.070000  7.566043  2.002792  7.071068  -3.425632 30.867478 19.647385 50.514863
1.080000  7.636753  1.968535  7.071068  -3.523732 31.208344 19.311331 50.519675
1.090000  7.707464  1.933298  7.071068  -3.621832 31.558834 18.965653 50.524487
1.100000  7.778175  1.897080  7.071068  -3.719932 31.918948 18.610351 50.529299
1.110000  7.848885  1.859880  7.071068  -3.818032 32.288685 18.245425 50.534110
1.120000  7.919596  1.821700  7.071068  -3.916132 32.668046 17.870877 50.538922
1.130000  7.990307  1.782539  7.071068  -4.014232 33.057030 17.486704 50.543734
1.140000  8.061017  1.742396  7.071068  -4.112332 33.455638 17.092908 50.548546
1.150000  8.131728  1.701273  7.071068  -4.210432 33.863870 16.689488 50.553358
1.160000  8.202439  1.659169  7.071068  -4.308532 34.281725 16.276445 50.558169
1.170000  8.273149  1.616083  7.071068  -4.406632 34.709204 15.853778 50.562981
1.180000  8.343860  1.572017  7.071068  -4.504732 35.146306 15.421487 50.567793
1.190000  8.414571  1.526970  7.071068  -4.602832 35.593032 14.979573 50.572605
1.200000  8.485281  1.480941  7.071068  -4.700932 36.049382 14.528035 50.577417
1.210000  8.555992  1.433932  7.071068  -4.799032 36.515355 14.066873 50.582228
1.220000  8.626703  1.385942  7.071068  -4.897132 36.990952 13.596088 50.587040
1.230000  8.697413  1.336970  7.071068  -4.995232 37.476172 13.115680 50.591852
1.240000  8.768124  1.287018  7.071068  -5.093332 37.971016 12.625647 50.596664
1.250000  8.838835  1.236085  7.071068  -5.191432 38.475484 12.125992 50.601476
1.260000  8.909545  1.184170  7.071068  -5.289532 38.989575 11.616712 50.606287
1.270000  8.980256  1.131275  7.071068  -5.387632 39.513290 11.097809 50.611099
1.280000  9.050967  1.077399  7.071068  -5.485732 40.046629 10.569282 50.615911
1.290000  9.121677  1.022541  7.071068  -5.583832 40.589591 10.031132 50.620723
1.300000  9.192388  0.966703  7.071068  -5.681932 41.142177 9.483358  50.625535
1.310000  9.263099  0.909884  7.071068  -5.780032 41.704386 8.925960  50.630346
1.320000  9.333810  0.852084  7.071068  -5.878132 42.276219 8.358939  50.635158
1.330000  9.404520  0.793302  7.071068  -5.976232 42.857676 7.782294  50.639970
1.340000  9.475231  0.733540  7.071068  -6.074332 43.448756 7.196026  50.644782
1.350000  9.545942  0.672797  7.071068  -6.172432 44.049460 6.600134  50.649594
1.360000  9.616652  0.611072  7.071068  -6.270532 44.659787 5.994619  50.654405
1.370000  9.687363  0.548367  7.071068  -6.368632 45.279738 5.379479  50.659217
1.380000  9.758074  0.484681  7.071068  -6.466732 45.909313 4.754716  50.664029
1.390000  9.828784  0.420013  7.071068  -6.564832 46.548511 4.120330  50.668841
1.400000  9.899495  0.354365  7.071068  -6.662932 47.197333 3.476320  50.673653
1.410000  9.970206  0.287736  7.071068  -6.761032 47.855778 2.822686  50.678465
1.420000  10.040916 0.220125  7.071068  -6.859132 48.523847 2.159429  50.683276
1.430000  10.111627 0.151534  7.071068  -6.957232 49.201540 1.486548  50.688088
1.440000  10.182338 0.081962  7.071068  -7.055332 49.888856 0.804044  50.692900
1.450000  10.253048 0.011408  7.071068  -7.153432 50.585796 0.111916  50.697712
